# Frequency(Hz) Median(50th_dB) NLNM(dB) NHNM(dB)
0.05000 -82.00000 -103.13000 -48.51000
0.05453 -83.00000 -103.13000 -48.51000
0.05946 -83.00000 -103.13000 -48.51000
0.06484 -83.00000 -103.13000 -48.51000
0.07071 -83.00000 -103.13000 -48.51000
0.07711 -85.00000 -103.13000 -48.51000
0.08409 -85.00000 -103.13000 -48.51000
0.09170 -86.00000 -103.13000 -48.51000
0.10000 -86.00000 -168.00000 -91.50000
0.10905 -87.00000 -168.00000 -91.50000
0.11892 -87.00000 -168.00000 -91.50000
0.12968 -88.00000 -168.00000 -91.50000
0.14142 -89.00000 -168.00000 -91.50000
0.15422 -90.00000 -168.00000 -91.50000
0.16818 -91.00000 -168.00000 -91.50000
0.18340 -91.00000 -168.00000 -91.50000
0.20000 -91.00000 -168.00000 -91.50000
0.21810 -92.00000 -168.00000 -91.50000
0.23784 -92.00000 -168.00000 -91.50000
0.25937 -93.00000 -168.00000 -91.50000
0.28284 -94.00000 -168.00000 -91.50000
0.30844 -96.00000 -168.00000 -91.50000
0.33636 -98.00000 -168.00000 -91.50000
0.36680 -100.00000 -168.00000 -91.50000
0.40000 -103.00000 -168.00000 -91.50000
0.43620 -106.00000 -168.00000 -91.50000
0.47568 -108.00000 -168.00000 -91.50000
0.51874 -110.00000 -168.00000 -91.50000
0.56569 -112.00000 -168.00000 -91.50000
0.61688 -113.00000 -168.00000 -91.50000
0.67272 -114.00000 -168.00000 -91.50000
0.73360 -114.00000 -168.00000 -91.50000
0.80000 -114.00000 -168.00000 -91.50000
0.87241 -114.00000 -168.00000 -91.50000
0.95137 -114.00000 -168.00000 -91.50000
1.03747 -113.00000 -168.00000 -91.50000
1.13137 -112.00000 -168.00000 -91.50000
1.23377 -112.00000 -168.00000 -91.50000
1.34543 -111.00000 -168.00000 -91.50000
1.46721 -111.00000 -168.00000 -91.50000
1.60000 -111.00000 -168.00000 -91.50000
1.74481 -111.00000 -168.00000 -91.50000
1.90273 -111.00000 -168.00000 -91.50000
2.07494 -111.00000 -168.00000 -91.50000
2.26274 -111.00000 -168.00000 -91.50000
2.46754 -110.00000 -168.00000 -91.50000
2.69087 -110.00000 -168.00000 -91.50000
2.93441 -110.00000 -168.00000 -91.50000
3.20000 -111.00000 -168.00000 -91.50000
3.48962 -111.00000 -168.00000 -91.50000
3.80546 -111.00000 -168.00000 -91.50000
4.14989 -112.00000 -168.00000 -91.50000
4.52548 -112.00000 -168.00000 -91.50000
4.93507 -113.00000 -168.00000 -91.50000
5.38174 -113.00000 -168.00000 -91.50000
5.86883 -115.00000 -168.00000 -91.50000
6.40000 -117.00000 -168.00000 -91.50000
6.97925 -120.00000 -168.00000 -91.50000
7.61093 -123.00000 -168.00000 -91.50000
8.29977 -127.00000 -168.00000 -91.50000
9.05097 -131.00000 -168.00000 -91.50000
9.87015 -136.00000 -168.00000 -91.50000
10.76347 -141.00000 -168.00000 -91.50000
11.73765 -144.00000 -168.00000 -91.50000
12.80000 -146.00000 -168.00000 -91.50000
13.95850 -147.00000 -168.00000 -91.50000
15.22185 -147.00000 -168.00000 -91.50000
16.59955 -147.00000 -168.00000 -91.50000
18.10193 -148.00000 -168.00000 -91.50000
19.74030 -148.00000 -168.00000 -91.50000
21.52695 -150.00000 -168.00000 -91.50000
23.47530 -151.00000 -168.00000 -91.50000
25.60000 -151.00000 -168.00000 -91.50000
27.91700 -152.00000 -168.00000 -91.50000
30.44370 -153.00000 -168.00000 -91.50000
33.19909 -155.00000 -168.00000 -91.50000
36.20387 -155.00000 -168.00000 -91.50000
39.48060 -156.00000 -168.00000 -91.50000
43.05390 -157.00000 -168.00000 -91.50000
46.95061 -156.00000 -168.00000 -91.50000
51.20000 -157.00000 -168.00000 -91.50000
55.83400 -158.00000 -168.00000 -91.50000
60.88740 -158.00000 -168.00000 -91.50000
66.39819 -157.00000 -168.00000 -91.50000
72.40773 -157.00000 -168.00000 -91.50000
78.96119 -157.00000 -168.00000 -91.50000
86.10779 -157.00000 -168.00000 -91.50000
93.90121 -157.00000 -168.00000 -91.50000
102.40000 -156.00000 -168.00000 -91.50000
111.66799 -156.00000 -168.00000 -91.50000
121.77481 -155.00000 -168.00000 -91.50000
132.79637 -155.00000 -168.00000 -91.50000
144.81547 -154.00000 -168.00000 -91.50000
157.92239 -154.00000 -168.00000 -91.50000
172.21559 -153.00000 -168.00000 -91.50000
187.80243 -153.00000 -168.00000 -91.50000
204.80000 -152.00000 -168.00000 -91.50000
223.33598 -152.00000 -168.00000 -91.50000
243.54962 -151.00000 -168.00000 -91.50000
265.59274 -151.00000 -168.00000 -91.50000
289.63094 -148.00000 -168.00000 -91.50000
315.84478 -148.00000 -168.00000 -91.50000
344.43117 -148.00000 -168.00000 -91.50000
375.60486 -148.00000 -168.00000 -91.50000
409.60000 -147.00000 -168.00000 -91.50000
446.67197 -147.00000 -168.00000 -91.50000
487.09923 -147.00000 -168.00000 -91.50000
531.18548 -147.00000 -168.00000 -91.50000
579.26188 -140.00000 -168.00000 -91.50000
631.68955 -140.00000 -168.00000 -91.50000
688.86234 -140.00000 -168.00000 -91.50000
751.20971 -140.00000 -168.00000 -91.50000
819.20000 -140.00000 -168.00000 -91.50000
