# Frequency(Hz) Median(50th_dB) NLNM(dB) NHNM(dB)
0.05000 -84.00000 -103.13000 -48.51000
0.05453 -85.00000 -103.13000 -48.51000
0.05946 -85.00000 -103.13000 -48.51000
0.06484 -85.00000 -103.13000 -48.51000
0.07071 -85.00000 -103.13000 -48.51000
0.07711 -87.00000 -103.13000 -48.51000
0.08409 -87.00000 -103.13000 -48.51000
0.09170 -88.00000 -103.13000 -48.51000
0.10000 -88.00000 -168.00000 -91.50000
0.10905 -89.00000 -168.00000 -91.50000
0.11892 -89.00000 -168.00000 -91.50000
0.12968 -90.00000 -168.00000 -91.50000
0.14142 -91.00000 -168.00000 -91.50000
0.15422 -91.00000 -168.00000 -91.50000
0.16818 -92.00000 -168.00000 -91.50000
0.18340 -92.00000 -168.00000 -91.50000
0.20000 -92.00000 -168.00000 -91.50000
0.21810 -93.00000 -168.00000 -91.50000
0.23784 -93.00000 -168.00000 -91.50000
0.25937 -94.00000 -168.00000 -91.50000
0.28284 -94.00000 -168.00000 -91.50000
0.30844 -95.00000 -168.00000 -91.50000
0.33636 -95.00000 -168.00000 -91.50000
0.36680 -96.00000 -168.00000 -91.50000
0.40000 -97.00000 -168.00000 -91.50000
0.43620 -97.00000 -168.00000 -91.50000
0.47568 -98.00000 -168.00000 -91.50000
0.51874 -98.00000 -168.00000 -91.50000
0.56569 -99.00000 -168.00000 -91.50000
0.61688 -101.00000 -168.00000 -91.50000
0.67272 -102.00000 -168.00000 -91.50000
0.73360 -104.00000 -168.00000 -91.50000
0.80000 -106.00000 -168.00000 -91.50000
0.87241 -107.00000 -168.00000 -91.50000
0.95137 -109.00000 -168.00000 -91.50000
1.03747 -111.00000 -168.00000 -91.50000
1.13137 -111.00000 -168.00000 -91.50000
1.23377 -111.00000 -168.00000 -91.50000
1.34543 -111.00000 -168.00000 -91.50000
1.46721 -112.00000 -168.00000 -91.50000
1.60000 -112.00000 -168.00000 -91.50000
1.74481 -112.00000 -168.00000 -91.50000
1.90273 -112.00000 -168.00000 -91.50000
2.07494 -112.00000 -168.00000 -91.50000
2.26274 -112.00000 -168.00000 -91.50000
2.46754 -112.00000 -168.00000 -91.50000
2.69087 -112.00000 -168.00000 -91.50000
2.93441 -112.00000 -168.00000 -91.50000
3.20000 -112.00000 -168.00000 -91.50000
3.48962 -112.00000 -168.00000 -91.50000
3.80546 -111.00000 -168.00000 -91.50000
4.14989 -111.00000 -168.00000 -91.50000
4.52548 -110.00000 -168.00000 -91.50000
4.93507 -109.00000 -168.00000 -91.50000
5.38174 -109.00000 -168.00000 -91.50000
5.86883 -109.00000 -168.00000 -91.50000
6.40000 -110.00000 -168.00000 -91.50000
6.97925 -112.00000 -168.00000 -91.50000
7.61093 -115.00000 -168.00000 -91.50000
8.29977 -118.00000 -168.00000 -91.50000
9.05097 -122.00000 -168.00000 -91.50000
9.87015 -127.00000 -168.00000 -91.50000
10.76347 -131.00000 -168.00000 -91.50000
11.73765 -134.00000 -168.00000 -91.50000
12.80000 -136.00000 -168.00000 -91.50000
13.95850 -136.00000 -168.00000 -91.50000
15.22185 -136.00000 -168.00000 -91.50000
16.59955 -135.00000 -168.00000 -91.50000
18.10193 -135.00000 -168.00000 -91.50000
19.74030 -135.00000 -168.00000 -91.50000
21.52695 -134.00000 -168.00000 -91.50000
23.47530 -134.00000 -168.00000 -91.50000
25.60000 -134.00000 -168.00000 -91.50000
27.91700 -133.00000 -168.00000 -91.50000
30.44370 -132.00000 -168.00000 -91.50000
33.19909 -132.00000 -168.00000 -91.50000
36.20387 -132.00000 -168.00000 -91.50000
39.48060 -131.00000 -168.00000 -91.50000
43.05390 -131.00000 -168.00000 -91.50000
46.95061 -131.00000 -168.00000 -91.50000
51.20000 -130.00000 -168.00000 -91.50000
55.83400 -129.00000 -168.00000 -91.50000
60.88740 -128.00000 -168.00000 -91.50000
66.39819 -128.00000 -168.00000 -91.50000
72.40773 -128.00000 -168.00000 -91.50000
78.96119 -127.00000 -168.00000 -91.50000
86.10779 -126.00000 -168.00000 -91.50000
93.90121 -125.00000 -168.00000 -91.50000
102.40000 -124.00000 -168.00000 -91.50000
111.66799 -123.00000 -168.00000 -91.50000
121.77481 -123.00000 -168.00000 -91.50000
132.79637 -122.00000 -168.00000 -91.50000
144.81547 -120.00000 -168.00000 -91.50000
157.92239 -120.00000 -168.00000 -91.50000
172.21559 -120.00000 -168.00000 -91.50000
187.80243 -120.00000 -168.00000 -91.50000
204.80000 -117.00000 -168.00000 -91.50000
223.33598 -117.00000 -168.00000 -91.50000
243.54962 -115.00000 -168.00000 -91.50000
265.59274 -115.00000 -168.00000 -91.50000
289.63094 -110.00000 -168.00000 -91.50000
315.84478 -110.00000 -168.00000 -91.50000
344.43117 -110.00000 -168.00000 -91.50000
375.60486 -110.00000 -168.00000 -91.50000
409.60000 -107.00000 -168.00000 -91.50000
446.67197 -107.00000 -168.00000 -91.50000
487.09923 -107.00000 -168.00000 -91.50000
531.18548 -107.00000 -168.00000 -91.50000
579.26188 -100.00000 -168.00000 -91.50000
631.68955 -100.00000 -168.00000 -91.50000
688.86234 -100.00000 -168.00000 -91.50000
751.20971 -100.00000 -168.00000 -91.50000
819.20000 -100.00000 -168.00000 -91.50000
