# Frequency(Hz) Median(75th_dB) NLNM(dB) NHNM(dB)
0.05000 -81.00000 -103.13000 -48.51000
0.05453 -82.00000 -103.13000 -48.51000
0.05946 -82.00000 -103.13000 -48.51000
0.06484 -82.00000 -103.13000 -48.51000
0.07071 -82.00000 -103.13000 -48.51000
0.07711 -84.00000 -103.13000 -48.51000
0.08409 -85.00000 -103.13000 -48.51000
0.09170 -85.00000 -103.13000 -48.51000
0.10000 -85.00000 -168.00000 -91.50000
0.10905 -86.00000 -168.00000 -91.50000
0.11892 -87.00000 -168.00000 -91.50000
0.12968 -88.00000 -168.00000 -91.50000
0.14142 -89.00000 -168.00000 -91.50000
0.15422 -89.00000 -168.00000 -91.50000
0.16818 -90.00000 -168.00000 -91.50000
0.18340 -90.00000 -168.00000 -91.50000
0.20000 -90.00000 -168.00000 -91.50000
0.21810 -91.00000 -168.00000 -91.50000
0.23784 -91.00000 -168.00000 -91.50000
0.25937 -92.00000 -168.00000 -91.50000
0.28284 -93.00000 -168.00000 -91.50000
0.30844 -95.00000 -168.00000 -91.50000
0.33636 -97.00000 -168.00000 -91.50000
0.36680 -100.00000 -168.00000 -91.50000
0.40000 -102.00000 -168.00000 -91.50000
0.43620 -105.00000 -168.00000 -91.50000
0.47568 -107.00000 -168.00000 -91.50000
0.51874 -109.00000 -168.00000 -91.50000
0.56569 -111.00000 -168.00000 -91.50000
0.61688 -112.00000 -168.00000 -91.50000
0.67272 -113.00000 -168.00000 -91.50000
0.73360 -114.00000 -168.00000 -91.50000
0.80000 -113.00000 -168.00000 -91.50000
0.87241 -112.00000 -168.00000 -91.50000
0.95137 -112.00000 -168.00000 -91.50000
1.03747 -111.00000 -168.00000 -91.50000
1.13137 -110.00000 -168.00000 -91.50000
1.23377 -110.00000 -168.00000 -91.50000
1.34543 -109.00000 -168.00000 -91.50000
1.46721 -110.00000 -168.00000 -91.50000
1.60000 -110.00000 -168.00000 -91.50000
1.74481 -110.00000 -168.00000 -91.50000
1.90273 -110.00000 -168.00000 -91.50000
2.07494 -110.00000 -168.00000 -91.50000
2.26274 -110.00000 -168.00000 -91.50000
2.46754 -110.00000 -168.00000 -91.50000
2.69087 -110.00000 -168.00000 -91.50000
2.93441 -110.00000 -168.00000 -91.50000
3.20000 -110.00000 -168.00000 -91.50000
3.48962 -111.00000 -168.00000 -91.50000
3.80546 -111.00000 -168.00000 -91.50000
4.14989 -112.00000 -168.00000 -91.50000
4.52548 -112.00000 -168.00000 -91.50000
4.93507 -112.00000 -168.00000 -91.50000
5.38174 -113.00000 -168.00000 -91.50000
5.86883 -114.00000 -168.00000 -91.50000
6.40000 -116.00000 -168.00000 -91.50000
6.97925 -119.00000 -168.00000 -91.50000
7.61093 -122.00000 -168.00000 -91.50000
8.29977 -126.00000 -168.00000 -91.50000
9.05097 -130.00000 -168.00000 -91.50000
9.87015 -134.00000 -168.00000 -91.50000
10.76347 -139.00000 -168.00000 -91.50000
11.73765 -142.00000 -168.00000 -91.50000
12.80000 -144.00000 -168.00000 -91.50000
13.95850 -144.00000 -168.00000 -91.50000
15.22185 -145.00000 -168.00000 -91.50000
16.59955 -145.00000 -168.00000 -91.50000
18.10193 -146.00000 -168.00000 -91.50000
19.74030 -146.00000 -168.00000 -91.50000
21.52695 -147.00000 -168.00000 -91.50000
23.47530 -148.00000 -168.00000 -91.50000
25.60000 -149.00000 -168.00000 -91.50000
27.91700 -149.00000 -168.00000 -91.50000
30.44370 -150.00000 -168.00000 -91.50000
33.19909 -151.00000 -168.00000 -91.50000
36.20387 -152.00000 -168.00000 -91.50000
39.48060 -153.00000 -168.00000 -91.50000
43.05390 -153.00000 -168.00000 -91.50000
46.95061 -154.00000 -168.00000 -91.50000
51.20000 -154.00000 -168.00000 -91.50000
55.83400 -154.00000 -168.00000 -91.50000
60.88740 -154.00000 -168.00000 -91.50000
66.39819 -154.00000 -168.00000 -91.50000
72.40773 -154.00000 -168.00000 -91.50000
78.96119 -154.00000 -168.00000 -91.50000
86.10779 -154.00000 -168.00000 -91.50000
93.90121 -153.00000 -168.00000 -91.50000
102.40000 -153.00000 -168.00000 -91.50000
111.66799 -153.00000 -168.00000 -91.50000
121.77481 -152.00000 -168.00000 -91.50000
132.79637 -152.00000 -168.00000 -91.50000
144.81547 -151.00000 -168.00000 -91.50000
157.92239 -151.00000 -168.00000 -91.50000
172.21559 -151.00000 -168.00000 -91.50000
187.80243 -151.00000 -168.00000 -91.50000
204.80000 -149.00000 -168.00000 -91.50000
223.33598 -149.00000 -168.00000 -91.50000
243.54962 -147.00000 -168.00000 -91.50000
265.59274 -147.00000 -168.00000 -91.50000
289.63094 -144.00000 -168.00000 -91.50000
315.84478 -144.00000 -168.00000 -91.50000
344.43117 -144.00000 -168.00000 -91.50000
375.60486 -144.00000 -168.00000 -91.50000
409.60000 -143.00000 -168.00000 -91.50000
446.67197 -143.00000 -168.00000 -91.50000
487.09923 -143.00000 -168.00000 -91.50000
531.18548 -143.00000 -168.00000 -91.50000
579.26188 -135.00000 -168.00000 -91.50000
631.68955 -135.00000 -168.00000 -91.50000
688.86234 -135.00000 -168.00000 -91.50000
751.20971 -135.00000 -168.00000 -91.50000
819.20000 -135.00000 -168.00000 -91.50000
