# Frequency(Hz) Median(75th_dB) NLNM(dB) NHNM(dB)
0.05000 -83.00000 -103.13000 -48.51000
0.05453 -84.00000 -103.13000 -48.51000
0.05946 -84.00000 -103.13000 -48.51000
0.06484 -84.00000 -103.13000 -48.51000
0.07071 -84.00000 -103.13000 -48.51000
0.07711 -87.00000 -103.13000 -48.51000
0.08409 -87.00000 -103.13000 -48.51000
0.09170 -87.00000 -103.13000 -48.51000
0.10000 -88.00000 -168.00000 -91.50000
0.10905 -88.00000 -168.00000 -91.50000
0.11892 -89.00000 -168.00000 -91.50000
0.12968 -90.00000 -168.00000 -91.50000
0.14142 -90.00000 -168.00000 -91.50000
0.15422 -91.00000 -168.00000 -91.50000
0.16818 -91.00000 -168.00000 -91.50000
0.18340 -91.00000 -168.00000 -91.50000
0.20000 -92.00000 -168.00000 -91.50000
0.21810 -92.00000 -168.00000 -91.50000
0.23784 -92.00000 -168.00000 -91.50000
0.25937 -93.00000 -168.00000 -91.50000
0.28284 -94.00000 -168.00000 -91.50000
0.30844 -94.00000 -168.00000 -91.50000
0.33636 -95.00000 -168.00000 -91.50000
0.36680 -96.00000 -168.00000 -91.50000
0.40000 -96.00000 -168.00000 -91.50000
0.43620 -97.00000 -168.00000 -91.50000
0.47568 -97.00000 -168.00000 -91.50000
0.51874 -97.00000 -168.00000 -91.50000
0.56569 -99.00000 -168.00000 -91.50000
0.61688 -100.00000 -168.00000 -91.50000
0.67272 -102.00000 -168.00000 -91.50000
0.73360 -103.00000 -168.00000 -91.50000
0.80000 -105.00000 -168.00000 -91.50000
0.87241 -106.00000 -168.00000 -91.50000
0.95137 -107.00000 -168.00000 -91.50000
1.03747 -108.00000 -168.00000 -91.50000
1.13137 -109.00000 -168.00000 -91.50000
1.23377 -109.00000 -168.00000 -91.50000
1.34543 -110.00000 -168.00000 -91.50000
1.46721 -110.00000 -168.00000 -91.50000
1.60000 -110.00000 -168.00000 -91.50000
1.74481 -111.00000 -168.00000 -91.50000
1.90273 -111.00000 -168.00000 -91.50000
2.07494 -111.00000 -168.00000 -91.50000
2.26274 -111.00000 -168.00000 -91.50000
2.46754 -111.00000 -168.00000 -91.50000
2.69087 -111.00000 -168.00000 -91.50000
2.93441 -111.00000 -168.00000 -91.50000
3.20000 -111.00000 -168.00000 -91.50000
3.48962 -111.00000 -168.00000 -91.50000
3.80546 -111.00000 -168.00000 -91.50000
4.14989 -111.00000 -168.00000 -91.50000
4.52548 -110.00000 -168.00000 -91.50000
4.93507 -109.00000 -168.00000 -91.50000
5.38174 -108.00000 -168.00000 -91.50000
5.86883 -109.00000 -168.00000 -91.50000
6.40000 -109.00000 -168.00000 -91.50000
6.97925 -112.00000 -168.00000 -91.50000
7.61093 -114.00000 -168.00000 -91.50000
8.29977 -118.00000 -168.00000 -91.50000
9.05097 -121.00000 -168.00000 -91.50000
9.87015 -125.00000 -168.00000 -91.50000
10.76347 -130.00000 -168.00000 -91.50000
11.73765 -132.00000 -168.00000 -91.50000
12.80000 -133.00000 -168.00000 -91.50000
13.95850 -132.00000 -168.00000 -91.50000
15.22185 -131.00000 -168.00000 -91.50000
16.59955 -130.00000 -168.00000 -91.50000
18.10193 -130.00000 -168.00000 -91.50000
19.74030 -130.00000 -168.00000 -91.50000
21.52695 -129.00000 -168.00000 -91.50000
23.47530 -128.00000 -168.00000 -91.50000
25.60000 -128.00000 -168.00000 -91.50000
27.91700 -127.00000 -168.00000 -91.50000
30.44370 -126.00000 -168.00000 -91.50000
33.19909 -125.00000 -168.00000 -91.50000
36.20387 -125.00000 -168.00000 -91.50000
39.48060 -124.00000 -168.00000 -91.50000
43.05390 -124.00000 -168.00000 -91.50000
46.95061 -124.00000 -168.00000 -91.50000
51.20000 -124.00000 -168.00000 -91.50000
55.83400 -124.00000 -168.00000 -91.50000
60.88740 -124.00000 -168.00000 -91.50000
66.39819 -124.00000 -168.00000 -91.50000
72.40773 -122.00000 -168.00000 -91.50000
78.96119 -122.00000 -168.00000 -91.50000
86.10779 -121.00000 -168.00000 -91.50000
93.90121 -120.00000 -168.00000 -91.50000
102.40000 -119.00000 -168.00000 -91.50000
111.66799 -118.00000 -168.00000 -91.50000
121.77481 -117.00000 -168.00000 -91.50000
132.79637 -115.00000 -168.00000 -91.50000
144.81547 -114.00000 -168.00000 -91.50000
157.92239 -114.00000 -168.00000 -91.50000
172.21559 -114.00000 -168.00000 -91.50000
187.80243 -114.00000 -168.00000 -91.50000
204.80000 -111.00000 -168.00000 -91.50000
223.33598 -111.00000 -168.00000 -91.50000
243.54962 -110.00000 -168.00000 -91.50000
265.59274 -110.00000 -168.00000 -91.50000
289.63094 -106.00000 -168.00000 -91.50000
315.84478 -106.00000 -168.00000 -91.50000
344.43117 -106.00000 -168.00000 -91.50000
375.60486 -106.00000 -168.00000 -91.50000
409.60000 -104.00000 -168.00000 -91.50000
446.67197 -104.00000 -168.00000 -91.50000
487.09923 -104.00000 -168.00000 -91.50000
531.18548 -104.00000 -168.00000 -91.50000
579.26188 -97.00000 -168.00000 -91.50000
631.68955 -97.00000 -168.00000 -91.50000
688.86234 -97.00000 -168.00000 -91.50000
751.20971 -97.00000 -168.00000 -91.50000
819.20000 -97.00000 -168.00000 -91.50000
