# Frequency(Hz) HVSR_Ratio
0.00000 0.72842
0.02500 1.23120
0.05000 52.99083
0.07500 20.47485
0.10000 15.71719
0.12500 15.48160
0.15000 14.93076
0.17500 12.75854
0.20000 10.18614
0.22500 8.06203
0.25000 6.65311
0.27500 5.82976
0.30000 5.39512
0.32500 5.24201
0.35000 5.32223
0.37500 5.59542
0.40000 6.02138
0.42500 6.56883
0.45000 7.21386
0.47500 7.92956
0.50000 8.67978
0.52500 9.42369
0.55000 10.12792
0.57500 10.77814
0.60000 11.38425
0.62500 11.97760
0.65000 12.60301
0.67500 13.31007
0.70000 14.14795
0.72500 15.16587
0.75000 16.41926
0.77500 17.97982
0.80000 19.94677
0.82500 22.45638
0.85000 25.68741
0.87500 29.86129
0.90000 35.23632
0.92500 42.09680
0.95000 50.73798
0.97500 61.44871
1.00000 74.49328
1.02500 90.09431
1.05000 108.41785
1.07500 129.56181
1.10000 153.54825
1.12500 180.31980
1.15000 209.74015
1.17500 241.59810
1.20000 275.61476
1.22500 311.45325
1.25000 348.72998
1.27500 387.02708
1.30000 425.90512
1.32500 464.91564
1.35000 503.61295
1.37500 541.56491
1.40000 578.36227
1.42500 613.62660
1.45000 647.01651
1.47500 678.23236
1.50000 707.01936
1.52500 733.16918
1.55000 756.52039
1.57500 776.95757
1.60000 794.40962
1.62500 808.84714
1.65000 820.27930
1.67500 828.75021
1.70000 834.33496
1.72500 837.13557
1.75000 837.27685
1.77500 834.90234
1.80000 830.17035
1.82500 823.25032
1.85000 814.31929
1.87500 803.55877
1.90000 791.15190
1.92500 777.28093
1.95000 762.12504
1.97500 745.85847
2.00000 728.64899
2.02500 710.65665
2.05000 692.03280
2.07500 672.91936
2.10000 653.44837
2.12500 633.74164
2.15000 613.91071
2.17500 594.05682
2.20000 574.27116
2.22500 554.63508
2.25000 535.22053
2.27500 516.09044
2.30000 497.29926
2.32500 478.89345
2.35000 460.91207
2.37500 443.38731
2.40000 426.34509
2.42500 409.80562
2.45000 393.78391
2.47500 378.29034
2.50000 363.33116
2.52500 348.90898
2.55000 335.02317
2.57500 321.67037
2.60000 308.84479
2.62500 296.53865
2.65000 284.74246
2.67500 273.44533
2.70000 262.63523
2.72500 252.29927
2.75000 242.42387
2.77500 232.99496
2.80000 223.99816
2.82500 215.41891
2.85000 207.24261
2.87500 199.45471
2.90000 192.04078
2.92500 184.98664
2.95000 178.27836
2.97500 171.90236
3.00000 165.84540
3.02500 160.09463
3.05000 154.63764
3.07500 149.46240
3.10000 144.55734
3.12500 139.91132
3.15000 135.51362
3.17500 131.35395
3.20000 127.42245
3.22500 123.70963
3.25000 120.20642
3.27500 116.90414
3.30000 113.79444
3.32500 110.86935
3.35000 108.12120
3.37500 105.54268
3.40000 103.12676
3.42500 100.86668
3.45000 98.75598
3.47500 96.78846
3.50000 94.95814
3.52500 93.25929
3.55000 91.68640
3.57500 90.23416
3.60000 88.89747
3.62500 87.67141
3.65000 86.55123
3.67500 85.53236
3.70000 84.61041
3.72500 83.78110
3.75000 83.04033
3.77500 82.38414
3.80000 81.80871
3.82500 81.31032
3.85000 80.88541
3.87500 80.53053
3.90000 80.24234
3.92500 80.01762
3.95000 79.85327
3.97500 79.74627
4.00000 79.69374
4.02500 79.69287
4.05000 79.74097
4.07500 79.83544
4.10000 79.97377
4.12500 80.15354
4.15000 80.37243
4.17500 80.62820
4.20000 80.91871
4.22500 81.24188
4.25000 81.59574
4.27500 81.97838
4.30000 82.38797
4.32500 82.82277
4.35000 83.28110
4.37500 83.76137
4.40000 84.26205
4.42500 84.78168
4.45000 85.31888
4.47500 85.87231
4.50000 86.44073
4.52500 87.02293
4.55000 87.61778
4.57500 88.22420
4.60000 88.84118
4.62500 89.46776
4.65000 90.10301
4.67500 90.74610
4.70000 91.39620
4.72500 92.05256
4.75000 92.71447
4.77500 93.38126
4.80000 94.05230
4.82500 94.72701
4.85000 95.40485
4.87500 96.08531
4.90000 96.76792
4.92500 97.45225
4.95000 98.13788
4.97500 98.82445
5.00000 99.51162
5.02500 100.19907
5.05000 100.88652
5.07500 101.57369
5.10000 102.26037
5.12500 102.94632
5.15000 103.63135
5.17500 104.31528
5.20000 104.99797
5.22500 105.67926
5.25000 106.35903
5.27500 107.03718
5.30000 107.71360
5.32500 108.38822
5.35000 109.06095
5.37500 109.73174
5.40000 110.40053
5.42500 111.06729
5.45000 111.73196
5.47500 112.39453
5.50000 113.05496
5.52500 113.71325
5.55000 114.36937
5.57500 115.02331
5.60000 115.67508
5.62500 116.32465
5.65000 116.97203
5.67500 117.61723
5.70000 118.26022
5.72500 118.90103
5.75000 119.53965
5.77500 120.17607
5.80000 120.81030
5.82500 121.44233
5.85000 122.07216
5.87500 122.69978
5.90000 123.32519
5.92500 123.94838
5.95000 124.56933
5.97500 125.18803
6.00000 125.80447
6.02500 126.41861
6.05000 127.03044
6.07500 127.63994
6.10000 128.24706
6.12500 128.85178
6.15000 129.45407
6.17500 130.05387
6.20000 130.65116
6.22500 131.24587
6.25000 131.83797
6.27500 132.42740
6.30000 133.01410
6.32500 133.59802
6.35000 134.17909
6.37500 134.75724
6.40000 135.33241
6.42500 135.90453
6.45000 136.47353
6.47500 137.03932
6.50000 137.60183
6.52500 138.16098
6.55000 138.71668
6.57500 139.26886
6.60000 139.81742
6.62500 140.36228
6.65000 140.90334
6.67500 141.44052
6.70000 141.97372
6.72500 142.50286
6.75000 143.02782
6.77500 143.54853
6.80000 144.06489
6.82500 144.57679
6.85000 145.08415
6.87500 145.58687
6.90000 146.08485
6.92500 146.57799
6.95000 147.06621
6.97500 147.54941
7.00000 148.02749
7.02500 148.50036
7.05000 148.96794
7.07500 149.43013
7.10000 149.88683
7.12500 150.33798
7.15000 150.78347
7.17500 151.22323
7.20000 151.65718
7.22500 152.08523
7.25000 152.50731
7.27500 152.92335
7.30000 153.33326
7.32500 153.73699
7.35000 154.13446
7.37500 154.52561
7.40000 154.91038
7.42500 155.28871
7.45000 155.66054
7.47500 156.02583
7.50000 156.38452
7.52500 156.73656
7.55000 157.08192
7.57500 157.42056
7.60000 157.75244
7.62500 158.07753
7.65000 158.39580
7.67500 158.70722
7.70000 159.01178
7.72500 159.30945
7.75000 159.60023
7.77500 159.88410
7.80000 160.16105
7.82500 160.43110
7.85000 160.69422
7.87500 160.95045
7.90000 161.19977
7.92500 161.44220
7.95000 161.67776
7.97500 161.90648
8.00000 162.12837
8.02500 162.34346
8.05000 162.55179
8.07500 162.75339
8.10000 162.94830
8.12500 163.13656
8.15000 163.31822
8.17500 163.49333
8.20000 163.66195
8.22500 163.82412
8.25000 163.97991
8.27500 164.12939
8.30000 164.27262
8.32500 164.40968
8.35000 164.54063
8.37500 164.66556
8.40000 164.78454
8.42500 164.89766
8.45000 165.00501
8.47500 165.10667
8.50000 165.20273
8.52500 165.29330
8.55000 165.37847
8.57500 165.45834
8.60000 165.53301
8.62500 165.60259
8.65000 165.66718
8.67500 165.72691
8.70000 165.78187
8.72500 165.83219
8.75000 165.87798
8.77500 165.91936
8.80000 165.95645
8.82500 165.98937
8.85000 166.01826
8.87500 166.04323
8.90000 166.06441
8.92500 166.08193
8.95000 166.09593
8.97500 166.10653
9.00000 166.11387
9.02500 166.11808
9.05000 166.11930
9.07500 166.11767
9.10000 166.11332
9.12500 166.10639
9.15000 166.09702
9.17500 166.08536
9.20000 166.07153
9.22500 166.05569
9.25000 166.03797
9.27500 166.01851
9.30000 165.99746
9.32500 165.97496
9.35000 165.95116
9.37500 165.92618
9.40000 165.90019
9.42500 165.87331
9.45000 165.84569
9.47500 165.81747
9.50000 165.78880
9.52500 165.75981
9.55000 165.73064
9.57500 165.70144
9.60000 165.67234
9.62500 165.64348
9.65000 165.61500
9.67500 165.58704
9.70000 165.55972
9.72500 165.53319
9.75000 165.50759
9.77500 165.48303
9.80000 165.45966
9.82500 165.43760
9.85000 165.41699
9.87500 165.39794
9.90000 165.38060
9.92500 165.36507
9.95000 165.35149
9.97500 165.33998
10.00000 165.33065
10.02500 165.32363
10.05000 165.31904
10.07500 165.31697
10.10000 165.31756
10.12500 165.32092
10.15000 165.32714
10.17500 165.33634
10.20000 165.34863
10.22500 165.36410
10.25000 165.38287
10.27500 165.40502
10.30000 165.43067
10.32500 165.45989
10.35000 165.49280
10.37500 165.52947
10.40000 165.56999
10.42500 165.61446
10.45000 165.66296
10.47500 165.71556
10.50000 165.77236
10.52500 165.83342
10.55000 165.89883
10.57500 165.96865
10.60000 166.04295
10.62500 166.12181
10.65000 166.20529
10.67500 166.29346
10.70000 166.38636
10.72500 166.48407
10.75000 166.58663
10.77500 166.69411
10.80000 166.80655
10.82500 166.92400
10.85000 167.04651
10.87500 167.17412
10.90000 167.30687
10.92500 167.44480
10.95000 167.58795
10.97500 167.73635
11.00000 167.89004
11.02500 168.04903
11.05000 168.21337
11.07500 168.38306
11.10000 168.55814
11.12500 168.73861
11.15000 168.92451
11.17500 169.11584
11.20000 169.31262
11.22500 169.51484
11.25000 169.72253
11.27500 169.93569
11.30000 170.15431
11.32500 170.37840
11.35000 170.60796
11.37500 170.84297
11.40000 171.08344
11.42500 171.32936
11.45000 171.58070
11.47500 171.83746
11.50000 172.09963
11.52500 172.36718
11.55000 172.64009
11.57500 172.91835
11.60000 173.20192
11.62500 173.49077
11.65000 173.78489
11.67500 174.08424
11.70000 174.38878
11.72500 174.69849
11.75000 175.01331
11.77500 175.33322
11.80000 175.65818
11.82500 175.98813
11.85000 176.32304
11.87500 176.66286
11.90000 177.00754
11.92500 177.35702
11.95000 177.71127
11.97500 178.07021
12.00000 178.43381
12.02500 178.80199
12.05000 179.17471
12.07500 179.55189
12.10000 179.93349
12.12500 180.31943
12.15000 180.70965
12.17500 181.10408
12.20000 181.50265
12.22500 181.90530
12.25000 182.31196
12.27500 182.72254
12.30000 183.13698
12.32500 183.55520
12.35000 183.97713
12.37500 184.40269
12.40000 184.83179
12.42500 185.26436
12.45000 185.70032
12.47500 186.13959
12.50000 186.58208
12.52500 187.02770
12.55000 187.47638
12.57500 187.92802
12.60000 188.38254
12.62500 188.83985
12.65000 189.29985
12.67500 189.76247
12.70000 190.22761
12.72500 190.69518
12.75000 191.16508
12.77500 191.63723
12.80000 192.11152
12.82500 192.58787
12.85000 193.06617
12.87500 193.54634
12.90000 194.02828
12.92500 194.51189
12.95000 194.99707
12.97500 195.48373
13.00000 195.97176
13.02500 196.46107
13.05000 196.95157
13.07500 197.44314
13.10000 197.93570
13.12500 198.42914
13.15000 198.92336
13.17500 199.41826
13.20000 199.91374
13.22500 200.40971
13.25000 200.90605
13.27500 201.40267
13.30000 201.89947
13.32500 202.39635
13.35000 202.89320
13.37500 203.38993
13.40000 203.88644
13.42500 204.38262
13.45000 204.87837
13.47500 205.37359
13.50000 205.86819
13.52500 206.36206
13.55000 206.85510
13.57500 207.34721
13.60000 207.83830
13.62500 208.32826
13.65000 208.81699
13.67500 209.30440
13.70000 209.79039
13.72500 210.27486
13.75000 210.75771
13.77500 211.23884
13.80000 211.71817
13.82500 212.19558
13.85000 212.67100
13.87500 213.14431
13.90000 213.61543
13.92500 214.08427
13.95000 214.55072
13.97500 215.01470
14.00000 215.47611
14.02500 215.93487
14.05000 216.39088
14.07500 216.84404
14.10000 217.29428
14.12500 217.74150
14.15000 218.18562
14.17500 218.62654
14.20000 219.06418
14.22500 219.49845
14.25000 219.92927
14.27500 220.35656
14.30000 220.78022
14.32500 221.20019
14.35000 221.61636
14.37500 222.02867
14.40000 222.43704
14.42500 222.84138
14.45000 223.24161
14.47500 223.63767
14.50000 224.02946
14.52500 224.41692
14.55000 224.79997
14.57500 225.17854
14.60000 225.55256
14.62500 225.92194
14.65000 226.28663
14.67500 226.64655
14.70000 227.00163
14.72500 227.35180
14.75000 227.69701
14.77500 228.03717
14.80000 228.37224
14.82500 228.70214
14.85000 229.02680
14.87500 229.34618
14.90000 229.66020
14.92500 229.96882
14.95000 230.27196
14.97500 230.56958
15.00000 230.86162
15.02500 231.14801
15.05000 231.42871
15.07500 231.70367
15.10000 231.97283
15.12500 232.23615
15.15000 232.49356
15.17500 232.74503
15.20000 232.99050
15.22500 233.22993
15.25000 233.46328
15.27500 233.69050
15.30000 233.91155
15.32500 234.12638
15.35000 234.33495
15.37500 234.53724
15.40000 234.73318
15.42500 234.92276
15.45000 235.10593
15.47500 235.28266
15.50000 235.45292
15.52500 235.61666
15.55000 235.77386
15.57500 235.92450
15.60000 236.06853
15.62500 236.20593
15.65000 236.33668
15.67500 236.46075
15.70000 236.57810
15.72500 236.68873
15.75000 236.79260
15.77500 236.88970
15.80000 236.98000
15.82500 237.06349
15.85000 237.14014
15.87500 237.20994
15.90000 237.27287
15.92500 237.32891
15.95000 237.37807
15.97500 237.42031
16.00000 237.45562
16.02500 237.48401
16.05000 237.50545
16.07500 237.51994
16.10000 237.52747
16.12500 237.52803
16.15000 237.52162
16.17500 237.50824
16.20000 237.48787
16.22500 237.46052
16.25000 237.42619
16.27500 237.38487
16.30000 237.33656
16.32500 237.28127
16.35000 237.21900
16.37500 237.14975
16.40000 237.07352
16.42500 236.99032
16.45000 236.90017
16.47500 236.80305
16.50000 236.69898
16.52500 236.58798
16.55000 236.47004
16.57500 236.34519
16.60000 236.21343
16.62500 236.07477
16.65000 235.92923
16.67500 235.77682
16.70000 235.61756
16.72500 235.45146
16.75000 235.27854
16.77500 235.09881
16.80000 234.91230
16.82500 234.71903
16.85000 234.51901
16.87500 234.31226
16.90000 234.09881
16.92500 233.87868
16.95000 233.65189
16.97500 233.41846
17.00000 233.17843
17.02500 232.93181
17.05000 232.67863
17.07500 232.41891
17.10000 232.15270
17.12500 231.88000
17.15000 231.60086
17.17500 231.31530
17.20000 231.02335
17.22500 230.72505
17.25000 230.42041
17.27500 230.10949
17.30000 229.79230
17.32500 229.46888
17.35000 229.13927
17.37500 228.80350
17.40000 228.46160
17.42500 228.11361
17.45000 227.75957
17.47500 227.39952
17.50000 227.03348
17.52500 226.66150
17.55000 226.28362
17.57500 225.89988
17.60000 225.51031
17.62500 225.11496
17.65000 224.71386
17.67500 224.30706
17.70000 223.89459
17.72500 223.47650
17.75000 223.05284
17.77500 222.62364
17.80000 222.18894
17.82500 221.74879
17.85000 221.30324
17.87500 220.85233
17.90000 220.39610
17.92500 219.93459
17.95000 219.46786
17.97500 218.99595
18.00000 218.51890
18.02500 218.03676
18.05000 217.54958
18.07500 217.05741
18.10000 216.56028
18.12500 216.05826
18.15000 215.55138
18.17500 215.03970
18.20000 214.52326
18.22500 214.00211
18.25000 213.47630
18.27500 212.94589
18.30000 212.41091
18.32500 211.87142
18.35000 211.32747
18.37500 210.77911
18.40000 210.22639
18.42500 209.66935
18.45000 209.10806
18.47500 208.54256
18.50000 207.97290
18.52500 207.39913
18.55000 206.82130
18.57500 206.23947
18.60000 205.65369
18.62500 205.06400
18.65000 204.47046
18.67500 203.87312
18.70000 203.27204
18.72500 202.66726
18.75000 202.05884
18.77500 201.44682
18.80000 200.83127
18.82500 200.21223
18.85000 199.58975
18.87500 198.96389
18.90000 198.33470
18.92500 197.70223
18.95000 197.06654
18.97500 196.42767
19.00000 195.78568
19.02500 195.14063
19.05000 194.49255
19.07500 193.84151
19.10000 193.18756
19.12500 192.53075
19.15000 191.87113
19.17500 191.20875
19.20000 190.54367
19.22500 189.87594
19.25000 189.20561
19.27500 188.53273
19.30000 187.85735
19.32500 187.17953
19.35000 186.49931
19.37500 185.81676
19.40000 185.13191
19.42500 184.44482
19.45000 183.75555
19.47500 183.06414
19.50000 182.37064
19.52500 181.67511
19.55000 180.97759
19.57500 180.27814
19.60000 179.57680
19.62500 178.87363
19.65000 178.16868
19.67500 177.46199
19.70000 176.75362
19.72500 176.04361
19.75000 175.33202
19.77500 174.61889
19.80000 173.90427
19.82500 173.18822
19.85000 172.47077
19.87500 171.75198
19.90000 171.03190
19.92500 170.31058
19.95000 169.58805
19.97500 168.86438
