# Frequency(Hz) Median(50th_dB) NLNM(dB) NHNM(dB)
0.05000 -81.00000 -103.13000 -48.51000
0.05453 -82.00000 -103.13000 -48.51000
0.05946 -83.00000 -103.13000 -48.51000
0.06484 -83.00000 -103.13000 -48.51000
0.07071 -83.00000 -103.13000 -48.51000
0.07711 -85.00000 -103.13000 -48.51000
0.08409 -86.00000 -103.13000 -48.51000
0.09170 -86.00000 -103.13000 -48.51000
0.10000 -86.00000 -168.00000 -91.50000
0.10905 -86.00000 -168.00000 -91.50000
0.11892 -86.00000 -168.00000 -91.50000
0.12968 -87.00000 -168.00000 -91.50000
0.14142 -87.00000 -168.00000 -91.50000
0.15422 -88.00000 -168.00000 -91.50000
0.16818 -89.00000 -168.00000 -91.50000
0.18340 -90.00000 -168.00000 -91.50000
0.20000 -91.00000 -168.00000 -91.50000
0.21810 -92.00000 -168.00000 -91.50000
0.23784 -92.00000 -168.00000 -91.50000
0.25937 -93.00000 -168.00000 -91.50000
0.28284 -93.00000 -168.00000 -91.50000
0.30844 -94.00000 -168.00000 -91.50000
0.33636 -95.00000 -168.00000 -91.50000
0.36680 -96.00000 -168.00000 -91.50000
0.40000 -96.00000 -168.00000 -91.50000
0.43620 -97.00000 -168.00000 -91.50000
0.47568 -97.00000 -168.00000 -91.50000
0.51874 -98.00000 -168.00000 -91.50000
0.56569 -99.00000 -168.00000 -91.50000
0.61688 -100.00000 -168.00000 -91.50000
0.67272 -102.00000 -168.00000 -91.50000
0.73360 -103.00000 -168.00000 -91.50000
0.80000 -104.00000 -168.00000 -91.50000
0.87241 -106.00000 -168.00000 -91.50000
0.95137 -108.00000 -168.00000 -91.50000
1.03747 -110.00000 -168.00000 -91.50000
1.13137 -111.00000 -168.00000 -91.50000
1.23377 -111.00000 -168.00000 -91.50000
1.34543 -111.00000 -168.00000 -91.50000
1.46721 -111.00000 -168.00000 -91.50000
1.60000 -112.00000 -168.00000 -91.50000
1.74481 -112.00000 -168.00000 -91.50000
1.90273 -112.00000 -168.00000 -91.50000
2.07494 -112.00000 -168.00000 -91.50000
2.26274 -112.00000 -168.00000 -91.50000
2.46754 -112.00000 -168.00000 -91.50000
2.69087 -112.00000 -168.00000 -91.50000
2.93441 -112.00000 -168.00000 -91.50000
3.20000 -112.00000 -168.00000 -91.50000
3.48962 -112.00000 -168.00000 -91.50000
3.80546 -111.00000 -168.00000 -91.50000
4.14989 -111.00000 -168.00000 -91.50000
4.52548 -111.00000 -168.00000 -91.50000
4.93507 -110.00000 -168.00000 -91.50000
5.38174 -110.00000 -168.00000 -91.50000
5.86883 -110.00000 -168.00000 -91.50000
6.40000 -111.00000 -168.00000 -91.50000
6.97925 -113.00000 -168.00000 -91.50000
7.61093 -115.00000 -168.00000 -91.50000
8.29977 -118.00000 -168.00000 -91.50000
9.05097 -121.00000 -168.00000 -91.50000
9.87015 -125.00000 -168.00000 -91.50000
10.76347 -128.00000 -168.00000 -91.50000
11.73765 -131.00000 -168.00000 -91.50000
12.80000 -132.00000 -168.00000 -91.50000
13.95850 -132.00000 -168.00000 -91.50000
15.22185 -132.00000 -168.00000 -91.50000
16.59955 -132.00000 -168.00000 -91.50000
18.10193 -132.00000 -168.00000 -91.50000
19.74030 -131.00000 -168.00000 -91.50000
21.52695 -132.00000 -168.00000 -91.50000
23.47530 -132.00000 -168.00000 -91.50000
25.60000 -132.00000 -168.00000 -91.50000
27.91700 -131.00000 -168.00000 -91.50000
30.44370 -131.00000 -168.00000 -91.50000
33.19909 -130.00000 -168.00000 -91.50000
36.20387 -129.00000 -168.00000 -91.50000
39.48060 -129.00000 -168.00000 -91.50000
43.05390 -129.00000 -168.00000 -91.50000
46.95061 -129.00000 -168.00000 -91.50000
51.20000 -129.00000 -168.00000 -91.50000
55.83400 -128.00000 -168.00000 -91.50000
60.88740 -127.00000 -168.00000 -91.50000
66.39819 -127.00000 -168.00000 -91.50000
72.40773 -126.00000 -168.00000 -91.50000
78.96119 -125.00000 -168.00000 -91.50000
86.10779 -124.00000 -168.00000 -91.50000
93.90121 -124.00000 -168.00000 -91.50000
102.40000 -122.00000 -168.00000 -91.50000
111.66799 -122.00000 -168.00000 -91.50000
121.77481 -121.00000 -168.00000 -91.50000
132.79637 -120.00000 -168.00000 -91.50000
144.81547 -118.00000 -168.00000 -91.50000
157.92239 -118.00000 -168.00000 -91.50000
172.21559 -118.00000 -168.00000 -91.50000
187.80243 -118.00000 -168.00000 -91.50000
204.80000 -115.00000 -168.00000 -91.50000
223.33598 -115.00000 -168.00000 -91.50000
243.54962 -114.00000 -168.00000 -91.50000
265.59274 -114.00000 -168.00000 -91.50000
289.63094 -112.00000 -168.00000 -91.50000
315.84478 -112.00000 -168.00000 -91.50000
344.43117 -112.00000 -168.00000 -91.50000
375.60486 -112.00000 -168.00000 -91.50000
409.60000 -110.00000 -168.00000 -91.50000
446.67197 -110.00000 -168.00000 -91.50000
487.09923 -110.00000 -168.00000 -91.50000
531.18548 -110.00000 -168.00000 -91.50000
579.26188 -101.00000 -168.00000 -91.50000
631.68955 -101.00000 -168.00000 -91.50000
688.86234 -101.00000 -168.00000 -91.50000
751.20971 -101.00000 -168.00000 -91.50000
819.20000 -101.00000 -168.00000 -91.50000
