# Frequency(Hz) Median(75th_dB) NLNM(dB) NHNM(dB)
0.05000 -80.00000 -103.13000 -48.51000
0.05453 -81.00000 -103.13000 -48.51000
0.05946 -82.00000 -103.13000 -48.51000
0.06484 -82.00000 -103.13000 -48.51000
0.07071 -83.00000 -103.13000 -48.51000
0.07711 -85.00000 -103.13000 -48.51000
0.08409 -85.00000 -103.13000 -48.51000
0.09170 -85.00000 -103.13000 -48.51000
0.10000 -86.00000 -168.00000 -91.50000
0.10905 -86.00000 -168.00000 -91.50000
0.11892 -86.00000 -168.00000 -91.50000
0.12968 -86.00000 -168.00000 -91.50000
0.14142 -87.00000 -168.00000 -91.50000
0.15422 -88.00000 -168.00000 -91.50000
0.16818 -89.00000 -168.00000 -91.50000
0.18340 -89.00000 -168.00000 -91.50000
0.20000 -90.00000 -168.00000 -91.50000
0.21810 -91.00000 -168.00000 -91.50000
0.23784 -91.00000 -168.00000 -91.50000
0.25937 -92.00000 -168.00000 -91.50000
0.28284 -93.00000 -168.00000 -91.50000
0.30844 -94.00000 -168.00000 -91.50000
0.33636 -94.00000 -168.00000 -91.50000
0.36680 -95.00000 -168.00000 -91.50000
0.40000 -96.00000 -168.00000 -91.50000
0.43620 -96.00000 -168.00000 -91.50000
0.47568 -96.00000 -168.00000 -91.50000
0.51874 -97.00000 -168.00000 -91.50000
0.56569 -98.00000 -168.00000 -91.50000
0.61688 -99.00000 -168.00000 -91.50000
0.67272 -101.00000 -168.00000 -91.50000
0.73360 -102.00000 -168.00000 -91.50000
0.80000 -103.00000 -168.00000 -91.50000
0.87241 -105.00000 -168.00000 -91.50000
0.95137 -107.00000 -168.00000 -91.50000
1.03747 -108.00000 -168.00000 -91.50000
1.13137 -109.00000 -168.00000 -91.50000
1.23377 -109.00000 -168.00000 -91.50000
1.34543 -110.00000 -168.00000 -91.50000
1.46721 -110.00000 -168.00000 -91.50000
1.60000 -111.00000 -168.00000 -91.50000
1.74481 -111.00000 -168.00000 -91.50000
1.90273 -111.00000 -168.00000 -91.50000
2.07494 -112.00000 -168.00000 -91.50000
2.26274 -112.00000 -168.00000 -91.50000
2.46754 -112.00000 -168.00000 -91.50000
2.69087 -111.00000 -168.00000 -91.50000
2.93441 -111.00000 -168.00000 -91.50000
3.20000 -111.00000 -168.00000 -91.50000
3.48962 -111.00000 -168.00000 -91.50000
3.80546 -111.00000 -168.00000 -91.50000
4.14989 -111.00000 -168.00000 -91.50000
4.52548 -110.00000 -168.00000 -91.50000
4.93507 -110.00000 -168.00000 -91.50000
5.38174 -109.00000 -168.00000 -91.50000
5.86883 -109.00000 -168.00000 -91.50000
6.40000 -110.00000 -168.00000 -91.50000
6.97925 -112.00000 -168.00000 -91.50000
7.61093 -114.00000 -168.00000 -91.50000
8.29977 -116.00000 -168.00000 -91.50000
9.05097 -119.00000 -168.00000 -91.50000
9.87015 -122.00000 -168.00000 -91.50000
10.76347 -125.00000 -168.00000 -91.50000
11.73765 -126.00000 -168.00000 -91.50000
12.80000 -127.00000 -168.00000 -91.50000
13.95850 -127.00000 -168.00000 -91.50000
15.22185 -127.00000 -168.00000 -91.50000
16.59955 -126.00000 -168.00000 -91.50000
18.10193 -125.00000 -168.00000 -91.50000
19.74030 -125.00000 -168.00000 -91.50000
21.52695 -125.00000 -168.00000 -91.50000
23.47530 -124.00000 -168.00000 -91.50000
25.60000 -124.00000 -168.00000 -91.50000
27.91700 -124.00000 -168.00000 -91.50000
30.44370 -123.00000 -168.00000 -91.50000
33.19909 -123.00000 -168.00000 -91.50000
36.20387 -122.00000 -168.00000 -91.50000
39.48060 -122.00000 -168.00000 -91.50000
43.05390 -122.00000 -168.00000 -91.50000
46.95061 -122.00000 -168.00000 -91.50000
51.20000 -122.00000 -168.00000 -91.50000
55.83400 -122.00000 -168.00000 -91.50000
60.88740 -121.00000 -168.00000 -91.50000
66.39819 -120.00000 -168.00000 -91.50000
72.40773 -119.00000 -168.00000 -91.50000
78.96119 -119.00000 -168.00000 -91.50000
86.10779 -118.00000 -168.00000 -91.50000
93.90121 -118.00000 -168.00000 -91.50000
102.40000 -117.00000 -168.00000 -91.50000
111.66799 -117.00000 -168.00000 -91.50000
121.77481 -116.00000 -168.00000 -91.50000
132.79637 -115.00000 -168.00000 -91.50000
144.81547 -114.00000 -168.00000 -91.50000
157.92239 -114.00000 -168.00000 -91.50000
172.21559 -113.00000 -168.00000 -91.50000
187.80243 -113.00000 -168.00000 -91.50000
204.80000 -111.00000 -168.00000 -91.50000
223.33598 -111.00000 -168.00000 -91.50000
243.54962 -110.00000 -168.00000 -91.50000
265.59274 -110.00000 -168.00000 -91.50000
289.63094 -106.00000 -168.00000 -91.50000
315.84478 -106.00000 -168.00000 -91.50000
344.43117 -106.00000 -168.00000 -91.50000
375.60486 -106.00000 -168.00000 -91.50000
409.60000 -104.00000 -168.00000 -91.50000
446.67197 -104.00000 -168.00000 -91.50000
487.09923 -104.00000 -168.00000 -91.50000
531.18548 -104.00000 -168.00000 -91.50000
579.26188 -98.00000 -168.00000 -91.50000
631.68955 -98.00000 -168.00000 -91.50000
688.86234 -98.00000 -168.00000 -91.50000
751.20971 -98.00000 -168.00000 -91.50000
819.20000 -98.00000 -168.00000 -91.50000
