# Frequency(Hz) Median(35th_dB) NLNM(dB) NHNM(dB)
0.05000 -85.00000 -103.13000 -48.51000
0.05453 -86.00000 -103.13000 -48.51000
0.05946 -86.00000 -103.13000 -48.51000
0.06484 -86.00000 -103.13000 -48.51000
0.07071 -87.00000 -103.13000 -48.51000
0.07711 -89.00000 -103.13000 -48.51000
0.08409 -89.00000 -103.13000 -48.51000
0.09170 -89.00000 -103.13000 -48.51000
0.10000 -89.00000 -168.00000 -91.50000
0.10905 -90.00000 -168.00000 -91.50000
0.11892 -91.00000 -168.00000 -91.50000
0.12968 -91.00000 -168.00000 -91.50000
0.14142 -91.00000 -168.00000 -91.50000
0.15422 -92.00000 -168.00000 -91.50000
0.16818 -93.00000 -168.00000 -91.50000
0.18340 -93.00000 -168.00000 -91.50000
0.20000 -94.00000 -168.00000 -91.50000
0.21810 -94.00000 -168.00000 -91.50000
0.23784 -94.00000 -168.00000 -91.50000
0.25937 -95.00000 -168.00000 -91.50000
0.28284 -95.00000 -168.00000 -91.50000
0.30844 -96.00000 -168.00000 -91.50000
0.33636 -96.00000 -168.00000 -91.50000
0.36680 -97.00000 -168.00000 -91.50000
0.40000 -98.00000 -168.00000 -91.50000
0.43620 -98.00000 -168.00000 -91.50000
0.47568 -98.00000 -168.00000 -91.50000
0.51874 -99.00000 -168.00000 -91.50000
0.56569 -100.00000 -168.00000 -91.50000
0.61688 -102.00000 -168.00000 -91.50000
0.67272 -103.00000 -168.00000 -91.50000
0.73360 -104.00000 -168.00000 -91.50000
0.80000 -106.00000 -168.00000 -91.50000
0.87241 -107.00000 -168.00000 -91.50000
0.95137 -110.00000 -168.00000 -91.50000
1.03747 -111.00000 -168.00000 -91.50000
1.13137 -111.00000 -168.00000 -91.50000
1.23377 -111.00000 -168.00000 -91.50000
1.34543 -112.00000 -168.00000 -91.50000
1.46721 -112.00000 -168.00000 -91.50000
1.60000 -112.00000 -168.00000 -91.50000
1.74481 -112.00000 -168.00000 -91.50000
1.90273 -112.00000 -168.00000 -91.50000
2.07494 -112.00000 -168.00000 -91.50000
2.26274 -112.00000 -168.00000 -91.50000
2.46754 -112.00000 -168.00000 -91.50000
2.69087 -112.00000 -168.00000 -91.50000
2.93441 -112.00000 -168.00000 -91.50000
3.20000 -112.00000 -168.00000 -91.50000
3.48962 -112.00000 -168.00000 -91.50000
3.80546 -112.00000 -168.00000 -91.50000
4.14989 -111.00000 -168.00000 -91.50000
4.52548 -110.00000 -168.00000 -91.50000
4.93507 -110.00000 -168.00000 -91.50000
5.38174 -109.00000 -168.00000 -91.50000
5.86883 -110.00000 -168.00000 -91.50000
6.40000 -111.00000 -168.00000 -91.50000
6.97925 -113.00000 -168.00000 -91.50000
7.61093 -115.00000 -168.00000 -91.50000
8.29977 -118.00000 -168.00000 -91.50000
9.05097 -123.00000 -168.00000 -91.50000
9.87015 -127.00000 -168.00000 -91.50000
10.76347 -132.00000 -168.00000 -91.50000
11.73765 -136.00000 -168.00000 -91.50000
12.80000 -138.00000 -168.00000 -91.50000
13.95850 -138.00000 -168.00000 -91.50000
15.22185 -138.00000 -168.00000 -91.50000
16.59955 -138.00000 -168.00000 -91.50000
18.10193 -138.00000 -168.00000 -91.50000
19.74030 -138.00000 -168.00000 -91.50000
21.52695 -139.00000 -168.00000 -91.50000
23.47530 -140.00000 -168.00000 -91.50000
25.60000 -140.00000 -168.00000 -91.50000
27.91700 -139.00000 -168.00000 -91.50000
30.44370 -139.00000 -168.00000 -91.50000
33.19909 -137.00000 -168.00000 -91.50000
36.20387 -136.00000 -168.00000 -91.50000
39.48060 -136.00000 -168.00000 -91.50000
43.05390 -135.00000 -168.00000 -91.50000
46.95061 -134.00000 -168.00000 -91.50000
51.20000 -133.00000 -168.00000 -91.50000
55.83400 -132.00000 -168.00000 -91.50000
60.88740 -132.00000 -168.00000 -91.50000
66.39819 -131.00000 -168.00000 -91.50000
72.40773 -131.00000 -168.00000 -91.50000
78.96119 -130.00000 -168.00000 -91.50000
86.10779 -129.00000 -168.00000 -91.50000
93.90121 -129.00000 -168.00000 -91.50000
102.40000 -127.00000 -168.00000 -91.50000
111.66799 -126.00000 -168.00000 -91.50000
121.77481 -124.00000 -168.00000 -91.50000
132.79637 -123.00000 -168.00000 -91.50000
144.81547 -123.00000 -168.00000 -91.50000
157.92239 -123.00000 -168.00000 -91.50000
172.21559 -121.00000 -168.00000 -91.50000
187.80243 -121.00000 -168.00000 -91.50000
204.80000 -119.00000 -168.00000 -91.50000
223.33598 -119.00000 -168.00000 -91.50000
243.54962 -117.00000 -168.00000 -91.50000
265.59274 -117.00000 -168.00000 -91.50000
289.63094 -112.00000 -168.00000 -91.50000
315.84478 -112.00000 -168.00000 -91.50000
344.43117 -112.00000 -168.00000 -91.50000
375.60486 -112.00000 -168.00000 -91.50000
409.60000 -108.00000 -168.00000 -91.50000
446.67197 -108.00000 -168.00000 -91.50000
487.09923 -108.00000 -168.00000 -91.50000
531.18548 -108.00000 -168.00000 -91.50000
579.26188 -101.00000 -168.00000 -91.50000
631.68955 -101.00000 -168.00000 -91.50000
688.86234 -101.00000 -168.00000 -91.50000
751.20971 -101.00000 -168.00000 -91.50000
819.20000 -101.00000 -168.00000 -91.50000
