# Frequency(Hz) Median(35th_dB) NLNM(dB) NHNM(dB)
0.05000 -84.00000 -103.13000 -48.51000
0.05453 -84.00000 -103.13000 -48.51000
0.05946 -85.00000 -103.13000 -48.51000
0.06484 -85.00000 -103.13000 -48.51000
0.07071 -85.00000 -103.13000 -48.51000
0.07711 -87.00000 -103.13000 -48.51000
0.08409 -87.00000 -103.13000 -48.51000
0.09170 -87.00000 -103.13000 -48.51000
0.10000 -88.00000 -168.00000 -91.50000
0.10905 -88.00000 -168.00000 -91.50000
0.11892 -89.00000 -168.00000 -91.50000
0.12968 -90.00000 -168.00000 -91.50000
0.14142 -91.00000 -168.00000 -91.50000
0.15422 -91.00000 -168.00000 -91.50000
0.16818 -92.00000 -168.00000 -91.50000
0.18340 -92.00000 -168.00000 -91.50000
0.20000 -92.00000 -168.00000 -91.50000
0.21810 -93.00000 -168.00000 -91.50000
0.23784 -93.00000 -168.00000 -91.50000
0.25937 -94.00000 -168.00000 -91.50000
0.28284 -95.00000 -168.00000 -91.50000
0.30844 -97.00000 -168.00000 -91.50000
0.33636 -99.00000 -168.00000 -91.50000
0.36680 -101.00000 -168.00000 -91.50000
0.40000 -104.00000 -168.00000 -91.50000
0.43620 -107.00000 -168.00000 -91.50000
0.47568 -109.00000 -168.00000 -91.50000
0.51874 -111.00000 -168.00000 -91.50000
0.56569 -112.00000 -168.00000 -91.50000
0.61688 -113.00000 -168.00000 -91.50000
0.67272 -114.00000 -168.00000 -91.50000
0.73360 -115.00000 -168.00000 -91.50000
0.80000 -115.00000 -168.00000 -91.50000
0.87241 -114.00000 -168.00000 -91.50000
0.95137 -114.00000 -168.00000 -91.50000
1.03747 -113.00000 -168.00000 -91.50000
1.13137 -113.00000 -168.00000 -91.50000
1.23377 -112.00000 -168.00000 -91.50000
1.34543 -112.00000 -168.00000 -91.50000
1.46721 -112.00000 -168.00000 -91.50000
1.60000 -111.00000 -168.00000 -91.50000
1.74481 -111.00000 -168.00000 -91.50000
1.90273 -111.00000 -168.00000 -91.50000
2.07494 -111.00000 -168.00000 -91.50000
2.26274 -111.00000 -168.00000 -91.50000
2.46754 -111.00000 -168.00000 -91.50000
2.69087 -110.00000 -168.00000 -91.50000
2.93441 -111.00000 -168.00000 -91.50000
3.20000 -111.00000 -168.00000 -91.50000
3.48962 -111.00000 -168.00000 -91.50000
3.80546 -112.00000 -168.00000 -91.50000
4.14989 -112.00000 -168.00000 -91.50000
4.52548 -113.00000 -168.00000 -91.50000
4.93507 -113.00000 -168.00000 -91.50000
5.38174 -114.00000 -168.00000 -91.50000
5.86883 -115.00000 -168.00000 -91.50000
6.40000 -117.00000 -168.00000 -91.50000
6.97925 -120.00000 -168.00000 -91.50000
7.61093 -123.00000 -168.00000 -91.50000
8.29977 -127.00000 -168.00000 -91.50000
9.05097 -132.00000 -168.00000 -91.50000
9.87015 -136.00000 -168.00000 -91.50000
10.76347 -141.00000 -168.00000 -91.50000
11.73765 -145.00000 -168.00000 -91.50000
12.80000 -148.00000 -168.00000 -91.50000
13.95850 -149.00000 -168.00000 -91.50000
15.22185 -149.00000 -168.00000 -91.50000
16.59955 -149.00000 -168.00000 -91.50000
18.10193 -149.00000 -168.00000 -91.50000
19.74030 -150.00000 -168.00000 -91.50000
21.52695 -152.00000 -168.00000 -91.50000
23.47530 -154.00000 -168.00000 -91.50000
25.60000 -155.00000 -168.00000 -91.50000
27.91700 -156.00000 -168.00000 -91.50000
30.44370 -156.00000 -168.00000 -91.50000
33.19909 -158.00000 -168.00000 -91.50000
36.20387 -159.00000 -168.00000 -91.50000
39.48060 -159.00000 -168.00000 -91.50000
43.05390 -159.00000 -168.00000 -91.50000
46.95061 -159.00000 -168.00000 -91.50000
51.20000 -159.00000 -168.00000 -91.50000
55.83400 -159.00000 -168.00000 -91.50000
60.88740 -159.00000 -168.00000 -91.50000
66.39819 -159.00000 -168.00000 -91.50000
72.40773 -159.00000 -168.00000 -91.50000
78.96119 -158.00000 -168.00000 -91.50000
86.10779 -158.00000 -168.00000 -91.50000
93.90121 -158.00000 -168.00000 -91.50000
102.40000 -157.00000 -168.00000 -91.50000
111.66799 -157.00000 -168.00000 -91.50000
121.77481 -156.00000 -168.00000 -91.50000
132.79637 -156.00000 -168.00000 -91.50000
144.81547 -155.00000 -168.00000 -91.50000
157.92239 -155.00000 -168.00000 -91.50000
172.21559 -155.00000 -168.00000 -91.50000
187.80243 -155.00000 -168.00000 -91.50000
204.80000 -153.00000 -168.00000 -91.50000
223.33598 -153.00000 -168.00000 -91.50000
243.54962 -152.00000 -168.00000 -91.50000
265.59274 -152.00000 -168.00000 -91.50000
289.63094 -150.00000 -168.00000 -91.50000
315.84478 -150.00000 -168.00000 -91.50000
344.43117 -150.00000 -168.00000 -91.50000
375.60486 -150.00000 -168.00000 -91.50000
409.60000 -148.00000 -168.00000 -91.50000
446.67197 -148.00000 -168.00000 -91.50000
487.09923 -148.00000 -168.00000 -91.50000
531.18548 -148.00000 -168.00000 -91.50000
579.26188 -141.00000 -168.00000 -91.50000
631.68955 -141.00000 -168.00000 -91.50000
688.86234 -141.00000 -168.00000 -91.50000
751.20971 -141.00000 -168.00000 -91.50000
819.20000 -141.00000 -168.00000 -91.50000
